##TITLE=нпво 3.1 1 без апод
##$NOTE=17.03.2022 16:28:1 ^0 x10 v:1 [Без приставки]
##$ITAB=-1,-1
##FIRSTX=5000.29
##DELTAX=-0.482281
##NPOINTS=9333
##XUNITS=1/CM
##YUNITS=ABSORBANCE
5000.29	0.148574
4999.81	0.231788
4999.32	0.240667
4998.84	0.176849
4998.36	0.161451
4997.88	0.217131
4997.39	0.260818
4996.91	0.257562
4996.43	0.235563
4995.95	0.210814
4995.47	0.176352
4994.98	0.148931
4994.5	0.145517
4994.02	0.149749
4993.54	0.133796
4993.05	0.1128
4992.57	0.116603
4992.09	0.141182
4991.61	0.178359
4991.13	0.234543
4990.64	0.297643
4990.16	0.328323
4989.68	0.309339
4989.2	0.260609
4988.71	0.194203
4988.23	0.110506
4987.75	0.0548515
4987.27	0.0929227
4986.78	0.189109
4986.3	0.243408
4985.82	0.219296
4985.34	0.186123
4984.86	0.217474
4984.37	0.262951
4983.89	0.261211
4983.41	0.22673
4982.93	0.189351
4982.44	0.157191
4981.96	0.139691
4981.48	0.156055
4981	0.197715
4980.51	0.213782
4980.03	0.171386
4979.55	0.126588
4979.07	0.127527
4978.59	0.158335
4978.1	0.188308
4977.62	0.20383
4977.14	0.194166
4976.66	0.152148
4976.17	0.115423
4975.69	0.135171
4975.21	0.185769
4974.73	0.193839
4974.25	0.147388
4973.76	0.126587
4973.28	0.171035
4972.8	0.213282
4972.32	0.199467
4971.83	0.180115
4971.35	0.201177
4970.87	0.211598
4970.39	0.169678
4969.9	0.142682
4969.42	0.190543
4968.94	0.255267
4968.46	0.232778
4967.98	0.133603
4967.49	0.0858942
4967.01	0.13524
4966.53	0.192735
4966.05	0.188361
4965.56	0.15042
4965.08	0.136522
4964.6	0.158087
4964.12	0.177239
4963.64	0.161872
4963.15	0.12185
4962.67	0.100695
4962.19	0.12801
4961.71	0.181354
4961.22	0.214097
4960.74	0.204345
4960.26	0.186693
4959.78	0.205858
4959.29	0.253981
4958.81	0.285927
4958.33	0.282291
4957.85	0.272173
4957.37	0.274046
4956.88	0.265261
4956.4	0.230637
4955.92	0.201044
4955.44	0.209485
4954.95	0.242128
4954.47	0.241295
4953.99	0.190699
4953.51	0.130656
4953.02	0.0989768
4952.54	0.101782
4952.06	0.115943
4951.58	0.138063
4951.1	0.179086
4950.61	0.220341
4950.13	0.218235
4949.65	0.189346
4949.17	0.181143
4948.68	0.180411
4948.2	0.143673
4947.72	0.0936235
4947.24	0.11683
4946.76	0.218644
4946.27	0.288272
4945.79	0.256171
4945.31	0.186484
4944.83	0.156384
4944.34	0.162917
4943.86	0.173005
4943.38	0.189395
4942.9	0.205002
4942.41	0.168225
4941.93	0.0796353
4941.45	0.0342409
4940.97	0.111487
4940.49	0.23043
4940	0.243359
4939.52	0.166894
4939.04	0.137508
4938.56	0.193338
4938.07	0.242396
4937.59	0.228061
4937.11	0.182854
4936.63	0.163665
4936.15	0.169571
4935.66	0.172656
4935.18	0.176087
4934.7	0.190925
4934.22	0.207461
4933.73	0.213183
4933.25	0.209261
4932.77	0.200803
4932.29	0.200562
4931.8	0.216558
4931.32	0.222449
4930.84	0.167811
4930.36	0.101066
4929.88	0.121353
4929.39	0.227876
4928.91	0.328629
4928.43	0.283115
4927.95	0.163581
4927.46	0.117614
4926.98	0.152456
4926.5	0.182149
4926.02	0.170444
4925.53	0.182946
4925.05	0.226511
4924.57	0.225152
4924.09	0.15435
4923.61	0.123135
4923.12	0.187297
4922.64	0.240889
4922.16	0.185444
4921.68	0.0841552
4921.19	0.0553926
4920.71	0.139256
4920.23	0.239918
4919.75	0.270092
4919.27	0.22421
4918.78	0.14953
4918.3	0.120227
4917.82	0.160496
4917.34	0.2261
4916.85	0.229646
4916.37	0.156636
4915.89	0.111805
4915.41	0.137253
4914.92	0.180649
4914.44	0.178945
4913.96	0.165793
4913.48	0.207134
4913	0.262019
4912.51	0.235011
4912.03	0.138856
4911.55	0.0832281
4911.07	0.140061
4910.58	0.226148
4910.1	0.236649
4909.62	0.188192
4909.14	0.152303
4908.66	0.153334
4908.17	0.148674
4907.69	0.11444
4907.21	0.088766
4906.73	0.119098
4906.24	0.181507
4905.76	0.227488
4905.28	0.24059
4904.8	0.239117
4904.31	0.239422
4903.83	0.229284
4903.35	0.203128
4902.87	0.193391
4902.39	0.215408
4901.9	0.227295
4901.42	0.174819
4900.94	0.0895246
4900.46	0.0704305
4899.97	0.133594
4899.49	0.213196
4899.01	0.226005
4898.53	0.178554
4898.04	0.147328
4897.56	0.160687
4897.08	0.19679
4896.6	0.224006
4896.12	0.226589
4895.63	0.196639
4895.15	0.14875
4894.67	0.134684
4894.19	0.18462
4893.7	0.234501
4893.22	0.206304
4892.74	0.155243
4892.26	0.182475
4891.78	0.289594
4891.29	0.336088
4890.81	0.255508
4890.33	0.165347
4889.85	0.155924
4889.36	0.192733
4888.88	0.17798
4888.4	0.14057
4887.92	0.165872
4887.43	0.238829
4886.95	0.253712
4886.47	0.197165
4885.99	0.167887
4885.51	0.2097
4885.02	0.247407
4884.54	0.205712
4884.06	0.147849
4883.58	0.141396
4883.09	0.168366
4882.61	0.185431
4882.13	0.190387
4881.65	0.201852
4881.17	0.201542
4880.68	0.169132
4880.2	0.136452
4879.72	0.152947
4879.24	0.194769
4878.75	0.212324
4878.27	0.200615
4877.79	0.182276
4877.31	0.166295
4876.82	0.1505
4876.34	0.150307
4875.86	0.179571
4875.38	0.213345
4874.9	0.213573
4874.41	0.19588
4873.93	0.202294
4873.45	0.235688
4872.97	0.256456
4872.48	0.236552
4872	0.215819
4871.52	0.230592
4871.04	0.259343
4870.55	0.256743
4870.07	0.211451
4869.59	0.171132
4869.11	0.174
4868.63	0.211183
4868.14	0.237739
4867.66	0.223695
4867.18	0.191961
4866.7	0.172481
4866.21	0.169039
4865.73	0.170251
4865.25	0.175008
4864.77	0.186251
4864.29	0.19234
4863.8	0.184442
4863.32	0.183782
4862.84	0.208448
4862.36	0.232712
4861.87	0.224416
4861.39	0.194244
4860.91	0.183695
4860.43	0.198289
4859.94	0.205102
4859.46	0.193629
4858.98	0.185164
4858.5	0.176947
4858.02	0.1446
4857.53	0.101623
4857.05	0.104024
4856.57	0.158774
4856.09	0.18592
4855.6	0.155414
4855.12	0.119671
4854.64	0.128113
4854.16	0.168658
4853.68	0.197528
4853.19	0.201485
4852.71	0.19157
4852.23	0.163068
4851.75	0.117461
4851.26	0.0960422
4850.78	0.138073
4850.3	0.203639
4849.82	0.230799
4849.33	0.20747
4848.85	0.164841
4848.37	0.137898
4847.89	0.144527
4847.41	0.185507
4846.92	0.225507
4846.44	0.220286
4845.96	0.183401
4845.48	0.167542
4844.99	0.197156
4844.51	0.231168
4844.03	0.222886
4843.55	0.19385
4843.06	0.18737
4842.58	0.199054
4842.1	0.202871
4841.62	0.201394
4841.14	0.20941
4840.65	0.211716
4840.17	0.186211
4839.69	0.152128
4839.21	0.150992
4838.72	0.182848
4838.24	0.209994
4837.76	0.211436
4837.28	0.201017
4836.8	0.196804
4836.31	0.196456
4835.83	0.185226
4835.35	0.161372
4834.87	0.140288
4834.38	0.135642
4833.9	0.156952
4833.42	0.188847
4832.94	0.196992
4832.45	0.197549
4831.97	0.223609
4831.49	0.271909
4831.01	0.282047
4830.53	0.234818
4830.04	0.193631
4829.56	0.192682
4829.08	0.210152
4828.6	0.20788
4828.11	0.198022
4827.63	0.219187
4827.15	0.274982
4826.67	0.309738
4826.19	0.276009
4825.7	0.223499
4825.22	0.20485
4824.74	0.219098
4824.26	0.226128
4823.77	0.19814
4823.29	0.17416
4822.81	0.193089
4822.33	0.2354
4821.84	0.244825
4821.36	0.210409
4820.88	0.186005
4820.4	0.202155
4819.92	0.220043
4819.43	0.206914
4818.95	0.196678
4818.47	0.219647
4817.99	0.247846
4817.5	0.232076
4817.02	0.194932
4816.54	0.18277
4816.06	0.183225
4815.57	0.160771
4815.09	0.13814
4814.61	0.160273
4814.13	0.195986
4813.65	0.184034
4813.16	0.139684
4812.68	0.132857
4812.2	0.170422
4811.72	0.176394
4811.23	0.125467
4810.75	0.0924488
4810.27	0.132333
4809.79	0.201065
4809.31	0.221695
4808.82	0.188134
4808.34	0.155382
4807.86	0.154781
4807.38	0.177393
4806.89	0.201509
4806.41	0.204862
4805.93	0.183732
4805.45	0.160348
4804.96	0.163258
4804.48	0.199054
4804	0.232636
4803.52	0.243194
4803.04	0.244619
4802.55	0.238363
4802.07	0.212508
4801.59	0.182288
4801.11	0.176247
4800.62	0.184769
4800.14	0.179181
4799.66	0.165584
4799.18	0.180826
4798.69	0.219083
4798.21	0.231304
4797.73	0.209535
4797.25	0.191257
4796.77	0.188746
4796.28	0.17243
4795.8	0.139361
4795.32	0.136901
4794.84	0.185402
4794.35	0.241734
4793.87	0.253654
4793.39	0.23233
4792.91	0.218365
4792.43	0.210421
4791.94	0.191895
4791.46	0.180693
4790.98	0.205374
4790.5	0.247727
4790.01	0.262558
4789.53	0.237757
4789.05	0.197773
4788.57	0.17657
4788.08	0.183557
4787.6	0.199554
4787.12	0.205371
4786.64	0.194122
4786.16	0.176843
4785.67	0.17107
4785.19	0.178044
4784.71	0.186654
4784.23	0.19386
4783.74	0.201525
4783.26	0.202199
4782.78	0.193444
4782.3	0.20084
4781.82	0.244724
4781.33	0.295535
4780.85	0.297924
4780.37	0.23928
4779.89	0.195977
4779.4	0.204156
4778.92	0.221262
4778.44	0.207136
4777.96	0.171624
4777.47	0.155074
4776.99	0.159117
4776.51	0.169734
4776.03	0.191329
4775.55	0.215778
4775.06	0.2056
4774.58	0.150259
4774.1	0.111212
4773.62	0.138991
4773.13	0.193796
4772.65	0.2102
4772.17	0.189666
4771.69	0.196998
4771.2	0.245174
4770.72	0.269974
4770.24	0.216681
4769.76	0.13471
4769.28	0.100911
4768.79	0.119553
4768.31	0.153232
4767.83	0.168009
4767.35	0.157545
4766.86	0.137348
4766.38	0.130934
4765.9	0.153286
4765.42	0.18534
4764.94	0.195762
4764.45	0.187332
4763.97	0.194536
4763.49	0.227816
4763.01	0.2462
4762.52	0.21785
4762.04	0.179666
4761.56	0.175718
4761.08	0.190157
4760.59	0.176016
4760.11	0.135368
4759.63	0.115577
4759.15	0.127061
4758.67	0.145714
4758.18	0.161472
4757.7	0.194275
4757.22	0.241926
4756.74	0.260925
4756.25	0.20614
4755.77	0.130124
4755.29	0.111869
4754.81	0.141578
4754.33	0.179732
4753.84	0.195535
4753.36	0.183172
4752.88	0.15895
4752.4	0.145476
4751.91	0.164928
4751.43	0.206045
4750.95	0.221502
4750.47	0.200153
4749.98	0.187877
4749.5	0.213969
4749.02	0.240645
4748.54	0.218342
4748.06	0.169542
4747.57	0.168599
4747.09	0.217624
4746.61	0.252236
4746.13	0.246469
4745.64	0.225145
4745.16	0.209217
4744.68	0.188094
4744.2	0.162319
4743.71	0.166537
4743.23	0.218965
4742.75	0.266092
4742.27	0.25425
4741.79	0.204713
4741.3	0.1729
4740.82	0.186777
4740.34	0.225068
4739.86	0.257981
4739.37	0.261266
4738.89	0.223373
4738.41	0.177473
4737.93	0.16471
4737.45	0.193694
4736.96	0.228882
4736.48	0.22084
4736	0.192159
4735.52	0.191971
4735.03	0.219203
4734.55	0.224982
4734.07	0.187964
4733.59	0.161056
4733.1	0.190335
4732.62	0.235677
4732.14	0.225275
4731.66	0.165796
4731.18	0.137956
4730.69	0.183311
4730.21	0.238805
4729.73	0.235634
4729.25	0.193744
4728.76	0.17883
4728.28	0.198477
4727.8	0.209106
4727.32	0.195608
4726.84	0.17961
4726.35	0.165109
4725.87	0.134161
4725.39	0.10667
4724.91	0.125534
4724.42	0.182175
4723.94	0.2154
4723.46	0.199204
4722.98	0.187713
4722.49	0.222108
4722.01	0.254459
4721.53	0.228532
4721.05	0.174473
4720.57	0.159562
4720.08	0.188439
4719.6	0.202384
4719.12	0.182973
4718.64	0.168406
4718.15	0.187783
4717.67	0.222432
4717.19	0.237854
4716.71	0.23592
4716.22	0.235327
4715.74	0.24468
4715.26	0.253029
4714.78	0.238531
4714.3	0.191761
4713.81	0.135937
4713.33	0.123703
4712.85	0.174276
4712.37	0.246151
4711.88	0.278947
4711.4	0.247387
4710.92	0.202964
4710.44	0.193373
4709.96	0.202965
4709.47	0.200755
4708.99	0.183699
4708.51	0.176115
4708.03	0.188797
4707.54	0.199586
4707.06	0.186033
4706.58	0.162194
4706.1	0.16824
4705.61	0.20974
4705.13	0.242252
4704.65	0.236674
4704.17	0.213112
4703.69	0.201155
4703.2	0.203293
4702.72	0.20374
4702.24	0.200156
4701.76	0.199071
4701.27	0.194293
4700.79	0.183126
4700.31	0.183644
4699.83	0.202673
4699.35	0.210423
4698.86	0.185539
4698.38	0.159152
4697.9	0.164685
4697.42	0.186256
4696.93	0.193026
4696.45	0.195046
4695.97	0.214428
4695.49	0.228538
4695	0.200824
4694.52	0.158282
4694.04	0.164033
4693.56	0.204429
4693.08	0.217339
4692.59	0.1912
4692.11	0.189316
4691.63	0.225463
4691.15	0.246814
4690.66	0.216172
4690.18	0.180395
4689.7	0.17923
4689.22	0.186993
4688.73	0.177422
4688.25	0.167572
4687.77	0.175825
4687.29	0.188493
4686.81	0.200382
4686.32	0.223086
4685.84	0.242352
4685.36	0.224468
4684.88	0.176814
4684.39	0.152183
4683.91	0.180479
4683.43	0.229871
4682.95	0.256329
4682.47	0.25622
4681.98	0.24205
4681.5	0.211524
4681.02	0.174443
4680.54	0.158353
4680.05	0.167494
4679.57	0.179807
4679.09	0.189495
4678.61	0.20951
4678.12	0.230082
4677.64	0.233744
4677.16	0.229924
4676.68	0.240862
4676.2	0.241237
4675.71	0.197806
4675.23	0.150182
4674.75	0.169789
4674.27	0.233981
4673.78	0.23694
4673.3	0.149306
4672.82	0.0721116
4672.34	0.100525
4671.86	0.182231
4671.37	0.220967
4670.89	0.219921
4670.41	0.225623
4669.93	0.235684
4669.44	0.217424
4668.96	0.186471
4668.48	0.177432
4668	0.183875
4667.51	0.185043
4667.03	0.180394
4666.55	0.174329
4666.07	0.158839
4665.59	0.142422
4665.1	0.155236
4664.62	0.189572
4664.14	0.203741
4663.66	0.188703
4663.17	0.176541
4662.69	0.177687
4662.21	0.160702
4661.73	0.126766
4661.24	0.125015
4660.76	0.165454
4660.28	0.185077
4659.8	0.161222
4659.32	0.150625
4658.83	0.182663
4658.35	0.202348
4657.87	0.166004
4657.39	0.132944
4656.9	0.166609
4656.42	0.218197
4655.94	0.205478
4655.46	0.150668
4654.98	0.143462
4654.49	0.19315
4654.01	0.229857
4653.53	0.219987
4653.05	0.201674
4652.56	0.200522
4652.08	0.198825
4651.6	0.188403
4651.12	0.186379
4650.63	0.198577
4650.15	0.209706
4649.67	0.218586
4649.19	0.237758
4648.71	0.252512
4648.22	0.229924
4647.74	0.183939
4647.26	0.165787
4646.78	0.185953
4646.29	0.209497
4645.81	0.205549
4645.33	0.189795
4644.85	0.188654
4644.37	0.19297
4643.88	0.180121
4643.4	0.157335
4642.92	0.153484
4642.44	0.173611
4641.95	0.198825
4641.47	0.216776
4640.99	0.230664
4640.51	0.236414
4640.02	0.218185
4639.54	0.183884
4639.06	0.174347
4638.58	0.216144
4638.1	0.261112
4637.61	0.242664
4637.13	0.185112
4636.65	0.169175
4636.17	0.220704
4635.68	0.261782
4635.2	0.22591
4634.72	0.168434
4634.24	0.16396
4633.75	0.192037
4633.27	0.189269
4632.79	0.164202
4632.31	0.177136
4631.83	0.216553
4631.34	0.212148
4630.86	0.164534
4630.38	0.144745
4629.9	0.193287
4629.41	0.254406
4628.93	0.251008
4628.45	0.212138
4627.97	0.191848
4627.49	0.189591
4627	0.179555
4626.52	0.163517
4626.04	0.162121
4625.56	0.181423
4625.07	0.211761
4624.59	0.24021
4624.11	0.254384
4623.63	0.240444
4623.14	0.202632
4622.66	0.170436
4622.18	0.160799
4621.7	0.167528
4621.22	0.179011
4620.73	0.188545
4620.25	0.19703
4619.77	0.212774
4619.29	0.241595
4618.8	0.261868
4618.32	0.242273
4617.84	0.184291
4617.36	0.13371
4616.88	0.144157
4616.39	0.193108
4615.91	0.218173
4615.43	0.20286
4614.95	0.182266
4614.46	0.176812
4613.98	0.172007
4613.5	0.169483
4613.02	0.190988
4612.53	0.229102
4612.05	0.243328
4611.57	0.225407
4611.09	0.210254
4610.61	0.213192
4610.12	0.206183
4609.64	0.172751
4609.16	0.142435
4608.68	0.141648
4608.19	0.154176
4607.71	0.15178
4607.23	0.143214
4606.75	0.152897
4606.26	0.172679
4605.78	0.170504
4605.3	0.144658
4604.82	0.131953
4604.34	0.152841
4603.85	0.192836
4603.37	0.210528
4602.89	0.192308
4602.41	0.166294
4601.92	0.15243
4601.44	0.152299
4600.96	0.16495
4600.48	0.197708
4600	0.248583
4599.51	0.280713
4599.03	0.256026
4598.55	0.209455
4598.07	0.195445
4597.58	0.22009
4597.1	0.239148
4596.62	0.218118
4596.14	0.179205
4595.65	0.155388
4595.17	0.158122
4594.69	0.18171
4594.21	0.208531
4593.73	0.214127
4593.24	0.185909
4592.76	0.145695
4592.28	0.128097
4591.8	0.130947
4591.31	0.135718
4590.83	0.149015
4590.35	0.181802
4589.87	0.204011
4589.39	0.186598
4588.9	0.166462
4588.42	0.198201
4587.94	0.258864
4587.46	0.274313
4586.97	0.22564
4586.49	0.166352
4586.01	0.151651
4585.53	0.164223
4585.04	0.174027
4584.56	0.186065
4584.08	0.198531
4583.6	0.193849
4583.12	0.185574
4582.63	0.208641
4582.15	0.248107
4581.67	0.24703
4581.19	0.210711
4580.7	0.190917
4580.22	0.202249
4579.74	0.199813
4579.26	0.171996
4578.77	0.168216
4578.29	0.196887
4577.81	0.190723
4577.33	0.137792
4576.85	0.105712
4576.36	0.148139
4575.88	0.213788
4575.4	0.221783
4574.92	0.191588
4574.43	0.168656
4573.95	0.156667
4573.47	0.156863
4572.99	0.193331
4572.51	0.248332
4572.02	0.2363
4571.54	0.167052
4571.06	0.145598
4570.58	0.195722
4570.09	0.221462
4569.61	0.145459
4569.13	0.0723224
4568.65	0.122122
4568.16	0.224512
4567.68	0.222514
4567.2	0.124239
4566.72	0.0844524
4566.24	0.153236
4565.75	0.228892
4565.27	0.229153
4564.79	0.194427
4564.31	0.193622
4563.82	0.209506
4563.34	0.19982
4562.86	0.168192
4562.38	0.146525
4561.9	0.142782
4561.41	0.145047
4560.93	0.153107
4560.45	0.174146
4559.97	0.204793
4559.48	0.231191
4559	0.231261
4558.52	0.198428
4558.04	0.171099
4557.55	0.189206
4557.07	0.23789
4556.59	0.251581
4556.11	0.214148
4555.63	0.184093
4555.14	0.18679
4554.66	0.18014
4554.18	0.139979
4553.7	0.12059
4553.21	0.16096
4552.73	0.210892
4552.25	0.208786
4551.77	0.177813
4551.28	0.173349
4550.8	0.193508
4550.32	0.191109
4549.84	0.163314
4549.36	0.149848
4548.87	0.164695
4548.39	0.189882
4547.91	0.214899
4547.43	0.228794
4546.94	0.203959
4546.46	0.144465
4545.98	0.108812
4545.5	0.140205
4545.02	0.187148
4544.53	0.179019
4544.05	0.142794
4543.57	0.147219
4543.09	0.195418
4542.6	0.213705
4542.12	0.181849
4541.64	0.152025
4541.16	0.151252
4540.67	0.158129
4540.19	0.160151
4539.71	0.175249
4539.23	0.200737
4538.75	0.206211
4538.26	0.189046
4537.78	0.183838
4537.3	0.203357
4536.82	0.221992
4536.33	0.22696
4535.85	0.223809
4535.37	0.203675
4534.89	0.157343
4534.41	0.112782
4533.92	0.11754
4533.44	0.169693
4532.96	0.199444
4532.48	0.182132
4531.99	0.164192
4531.51	0.19409
4531.03	0.238952
4530.55	0.23197
4530.06	0.190894
4529.58	0.173256
4529.1	0.202574
4528.62	0.243268
4528.14	0.247765
4527.65	0.21671
4527.17	0.186542
4526.69	0.182288
4526.21	0.202838
4525.72	0.228056
4525.24	0.237432
4524.76	0.225476
4524.28	0.19706
4523.79	0.166941
4523.31	0.155407
4522.83	0.16437
4522.35	0.174044
4521.87	0.172909
4521.38	0.174522
4520.9	0.195075
4520.42	0.224374
4519.94	0.234164
4519.45	0.224472
4518.97	0.219745
4518.49	0.224072
4518.01	0.220896
4517.53	0.210716
4517.04	0.208767
4516.56	0.207218
4516.08	0.178117
4515.6	0.139906
4515.11	0.141671
4514.63	0.190561
4514.15	0.229612
4513.67	0.210044
4513.18	0.176591
4512.7	0.19031
4512.22	0.234296
4511.74	0.235193
4511.26	0.190729
4510.77	0.157317
4510.29	0.170292
4509.81	0.199166
4509.33	0.206116
4508.84	0.203955
4508.36	0.20699
4507.88	0.201297
4507.4	0.181642
4506.92	0.173246
4506.43	0.190179
4505.95	0.204566
4505.47	0.192105
4504.99	0.178405
4504.5	0.195997
4504.02	0.227195
4503.54	0.232455
4503.06	0.214378
4502.57	0.204517
4502.09	0.208201
4501.61	0.200121
4501.13	0.181746
4500.65	0.181092
4500.16	0.204341
4499.68	0.212479
4499.2	0.194696
4498.72	0.191214
4498.23	0.217585
4497.75	0.23164
4497.27	0.20328
4496.79	0.173014
4496.3	0.187451
4495.82	0.223951
4495.34	0.224635
4494.86	0.193242
4494.38	0.177392
4493.89	0.185061
4493.41	0.187195
4492.93	0.176387
4492.45	0.173975
4491.96	0.177166
4491.48	0.169969
4491	0.16521
4490.52	0.186906
4490.04	0.208121
4489.55	0.191181
4489.07	0.159695
4488.59	0.166006
4488.11	0.203217
4487.62	0.212428
4487.14	0.192297
4486.66	0.193893
4486.18	0.214404
4485.69	0.196951
4485.21	0.135737
4484.73	0.120626
4484.25	0.170888
4483.77	0.202869
4483.28	0.176668
4482.8	0.151589
4482.32	0.177269
4481.84	0.206167
4481.35	0.186277
4480.87	0.160535
4480.39	0.188698
4479.91	0.225397
4479.43	0.202961
4478.94	0.157819
4478.46	0.163655
4477.98	0.195256
4477.5	0.180537
4477.01	0.141402
4476.53	0.158623
4476.05	0.222978
4475.57	0.242425
4475.08	0.196676
4474.6	0.169722
4474.12	0.19831
4473.64	0.223325
4473.16	0.198615
4472.67	0.161598
4472.19	0.162982
4471.71	0.193049
4471.23	0.217725
4470.74	0.236186
4470.26	0.248729
4469.78	0.232523
4469.3	0.193427
4468.81	0.174315
4468.33	0.186432
4467.85	0.199607
4467.37	0.194973
4466.89	0.19681
4466.4	0.216285
4465.92	0.222236
4465.44	0.193635
4464.96	0.165414
4464.47	0.165339
4463.99	0.174323
4463.51	0.172407
4463.03	0.174287
4462.55	0.198177
4462.06	0.225267
4461.58	0.226161
4461.1	0.204857
4460.62	0.187799
4460.13	0.188139
4459.65	0.204786
4459.17	0.23112
4458.69	0.250434
4458.2	0.241514
4457.72	0.204516
4457.24	0.174096
4456.76	0.179971
4456.28	0.209035
4455.79	0.226719
4455.31	0.211044
4454.83	0.168597
4454.35	0.131273
4453.86	0.134406
4453.38	0.180172
4452.9	0.218577
4452.42	0.199018
4451.94	0.147325
4451.45	0.128119
4450.97	0.150103
4450.49	0.168966
4450.01	0.170021
4449.52	0.186458
4449.04	0.21643
4448.56	0.205001
4448.08	0.141382
4447.59	0.104831
4447.11	0.149164
4446.63	0.221159
4446.15	0.242567
4445.67	0.219515
4445.18	0.210191
4444.7	0.215149
4444.22	0.1938
4443.74	0.162013
4443.25	0.177511
4442.77	0.22492
4442.29	0.228122
4441.81	0.170681
4441.32	0.13451
4440.84	0.174001
4440.36	0.228712
4439.88	0.216165
4439.4	0.163023
4438.91	0.151599
4438.43	0.201494
4437.95	0.25702
4437.47	0.261609
4436.98	0.230498
4436.5	0.204242
4436.02	0.196306
4435.54	0.197921
4435.06	0.194426
4434.57	0.177854
4434.09	0.160431
4433.61	0.174988
4433.13	0.223998
4432.64	0.261438
4432.16	0.249651
4431.68	0.206041
