##TITLE=нпво 3.2 1 без апод
##$NOTE=17.03.2022 16:33:1 ^0 x10 v:1 [Без приставки]
##$ITAB=-1,-1
##FIRSTX=5000.29
##DELTAX=-0.482281
##NPOINTS=9333
##XUNITS=1/CM
##YUNITS=ABSORBANCE
5000.29	0.207546
4999.81	0.247768
4999.32	0.223075
4998.84	0.168702
4998.36	0.162406
4997.88	0.182847
4997.39	0.163196
4996.91	0.123314
4996.43	0.127766
4995.95	0.182547
4995.47	0.218514
4994.98	0.213881
4994.5	0.21463
4994.02	0.227819
4993.54	0.199937
4993.05	0.132519
4992.57	0.0963183
4992.09	0.109545
4991.61	0.148601
4991.13	0.187602
4990.64	0.211601
4990.16	0.203704
4989.68	0.155331
4989.2	0.0971879
4988.71	0.0650596
4988.23	0.0573315
4987.75	0.0633917
4987.27	0.103623
4986.78	0.177235
4986.3	0.229803
4985.82	0.207875
4985.34	0.158777
4984.86	0.200266
4984.37	0.298652
4983.89	0.303604
4983.41	0.197351
4982.93	0.11523
4982.44	0.139777
4981.96	0.203271
4981.48	0.183519
4981	0.129662
4980.51	0.128421
4980.03	0.172761
4979.55	0.185004
4979.07	0.159286
4978.59	0.159012
4978.1	0.187405
4977.62	0.197648
4977.14	0.181281
4976.66	0.171698
4976.17	0.175504
4975.69	0.171705
4975.21	0.168372
4974.73	0.187411
4974.25	0.219682
4973.76	0.216651
4973.28	0.170836
4972.8	0.125874
4972.32	0.0950298
4971.83	0.0856373
4971.35	0.112608
4970.87	0.16964
4970.39	0.219091
4969.9	0.216473
4969.42	0.185309
4968.94	0.164221
4968.46	0.136796
4967.98	0.0871104
4967.49	0.0641718
4967.01	0.11532
4966.53	0.191918
4966.05	0.217902
4965.56	0.183305
4965.08	0.149321
4964.6	0.15336
4964.12	0.168909
4963.64	0.162511
4963.15	0.140169
4962.67	0.133528
4962.19	0.161566
4961.71	0.210518
4961.22	0.241777
4960.74	0.210416
4960.26	0.140725
4959.78	0.118511
4959.29	0.178018
4958.81	0.267836
4958.33	0.270212
4957.85	0.1806
4957.37	0.116892
4956.88	0.128657
4956.4	0.182138
4955.92	0.20493
4955.44	0.172564
4954.95	0.136737
4954.47	0.139398
4953.99	0.170662
4953.51	0.184952
4953.02	0.137151
4952.54	0.0770556
4952.06	0.0839334
4951.58	0.151341
4951.1	0.214168
4950.61	0.20019
4950.13	0.15492
4949.65	0.172475
4949.17	0.241051
4948.68	0.248045
4948.2	0.151343
4947.72	0.0665268
4947.24	0.093905
4946.76	0.200987
4946.27	0.266149
4945.79	0.247195
4945.31	0.196534
4944.83	0.159842
4944.34	0.144831
4943.86	0.155347
4943.38	0.197805
4942.9	0.229839
4942.41	0.184321
4941.93	0.0887655
4941.45	0.0425937
4940.97	0.10232
4940.49	0.173833
4940	0.148862
4939.52	0.0822928
4939.04	0.103749
4938.56	0.235539
4938.07	0.32456
4937.59	0.254571
4937.11	0.135292
4936.63	0.11445
4936.15	0.182089
4935.66	0.215393
4935.18	0.168958
4934.7	0.122457
4934.22	0.124061
4933.73	0.129636
4933.25	0.112336
4932.77	0.12099
4932.29	0.181508
4931.8	0.22742
4931.32	0.19081
4930.84	0.130949
4930.36	0.156131
4929.88	0.24612
4929.39	0.286105
4928.91	0.248883
4928.43	0.209607
4927.95	0.215361
4927.46	0.232214
4926.98	0.198857
4926.5	0.137749
4926.02	0.115849
4925.53	0.146878
4925.05	0.202083
4924.57	0.238887
4924.09	0.216142
4923.61	0.156058
4923.12	0.137387
4922.64	0.169686
4922.16	0.19751
4921.68	0.168691
4921.19	0.123394
4920.71	0.166393
4920.23	0.281208
4919.75	0.346541
4919.27	0.273157
4918.78	0.160845
4918.3	0.145558
4917.82	0.211158
4917.34	0.236041
4916.85	0.163495
4916.37	0.097972
4915.89	0.119029
4915.41	0.185513
4914.92	0.191849
4914.44	0.126104
4913.96	0.0914879
4913.48	0.145635
4913	0.232835
4912.51	0.245193
4912.03	0.162524
4911.55	0.0804401
4911.07	0.0931748
4910.58	0.161975
4910.1	0.19733
4909.62	0.181075
4909.14	0.16428
4908.66	0.180219
4908.17	0.181222
4907.69	0.126521
4907.21	0.0752531
4906.73	0.11751
4906.24	0.228498
4905.76	0.287484
4905.28	0.224463
4904.8	0.149199
4904.31	0.150695
4903.83	0.202273
4903.35	0.222427
4902.87	0.192994
4902.39	0.188157
4901.9	0.218145
4901.42	0.218172
4900.94	0.147332
4900.46	0.0959857
4899.97	0.124309
4899.49	0.197487
4899.01	0.237988
4898.53	0.204023
4898.04	0.146058
4897.56	0.111918
4897.08	0.111555
4896.6	0.139407
4896.12	0.178968
4895.63	0.196449
4895.15	0.160312
4894.67	0.101328
4894.19	0.0902177
4893.7	0.138343
4893.22	0.187502
4892.74	0.181802
4892.26	0.15112
4891.78	0.163866
4891.29	0.216013
4890.81	0.243793
4890.33	0.196408
4889.85	0.116775
4889.36	0.0893656
4888.88	0.125519
4888.4	0.189737
4887.92	0.236825
4887.43	0.236702
4886.95	0.204029
4886.47	0.169726
4885.99	0.16127
4885.51	0.184147
4885.02	0.204597
4884.54	0.195608
4884.06	0.177859
4883.58	0.17539
4883.09	0.174504
4882.61	0.161004
4882.13	0.161275
4881.65	0.195629
4881.17	0.222192
4880.68	0.191184
4880.2	0.140667
4879.72	0.159962
4879.24	0.228803
4878.75	0.241452
4878.27	0.170609
4877.79	0.116592
4877.31	0.153057
4876.82	0.242079
4876.34	0.279013
4875.86	0.238057
4875.38	0.20693
4874.9	0.225118
4874.41	0.256831
4873.93	0.244861
4873.45	0.180255
4872.97	0.105247
4872.48	0.0741002
4872	0.112598
4871.52	0.17773
4871.04	0.202566
4870.55	0.184425
4870.07	0.178977
4869.59	0.202828
4869.11	0.206187
4868.63	0.175708
4868.14	0.16928
4867.66	0.202403
4867.18	0.204807
4866.7	0.129865
4866.21	0.0587636
4865.73	0.0718591
4865.25	0.145111
4864.77	0.177257
4864.29	0.136452
4863.8	0.102037
4863.32	0.129924
4862.84	0.192774
4862.36	0.232513
4861.87	0.237186
4861.39	0.22309
4860.91	0.204246
4860.43	0.187823
4859.94	0.170843
4859.46	0.151824
4858.98	0.146419
4858.5	0.161624
4858.02	0.16851
4857.53	0.13314
4857.05	0.0870074
4856.57	0.103444
4856.09	0.165564
4855.6	0.19326
4855.12	0.147452
4854.64	0.0985137
4854.16	0.109215
4853.68	0.157401
4853.19	0.186371
4852.71	0.192625
4852.23	0.199868
4851.75	0.17724
4851.26	0.101034
4850.78	0.0534652
4850.3	0.0806377
4849.82	0.128379
4849.33	0.125515
4848.85	0.081827
4848.37	0.0730301
4847.89	0.122293
4847.41	0.188975
4846.92	0.22948
4846.44	0.245809
4845.96	0.2343
4845.48	0.190111
4844.99	0.163573
4844.51	0.191673
4844.03	0.222406
4843.55	0.178962
4843.06	0.120287
4842.58	0.138945
4842.1	0.216228
4841.62	0.224387
4841.14	0.132225
4840.65	0.0781857
4840.17	0.111153
4839.69	0.178694
4839.21	0.192756
4838.72	0.190976
4838.24	0.245355
4837.76	0.306715
4837.28	0.2539
4836.8	0.135201
4836.31	0.0723228
4835.83	0.100698
4835.35	0.163922
4834.87	0.176821
4834.38	0.141546
4833.9	0.114782
4833.42	0.142853
4832.94	0.19961
4832.45	0.221369
4831.97	0.195959
4831.49	0.16117
4831.01	0.156383
4830.53	0.171385
4830.04	0.17443
4829.56	0.174937
4829.08	0.207764
4828.6	0.262842
4828.11	0.276908
4827.63	0.235424
4827.15	0.197404
4826.67	0.199198
4826.19	0.21818
4825.7	0.219369
4825.22	0.205207
4824.74	0.188537
4824.26	0.16844
4823.77	0.150327
4823.29	0.149525
4822.81	0.161412
4822.33	0.164325
4821.84	0.15439
4821.36	0.147207
4820.88	0.146392
4820.4	0.142728
4819.92	0.147012
4819.43	0.174898
4818.95	0.202417
4818.47	0.183115
4817.99	0.135764
4817.5	0.132004
4817.02	0.188384
4816.54	0.221267
4816.06	0.152395
4815.57	0.0630473
4815.09	0.0565435
4814.61	0.137079
4814.13	0.205372
4813.65	0.191217
4813.16	0.141515
4812.68	0.123345
4812.2	0.145708
4811.72	0.173509
4811.23	0.184406
4810.75	0.1804
4810.27	0.176282
4809.79	0.183389
4809.31	0.199167
4808.82	0.207136
4808.34	0.188127
4807.86	0.150438
4807.38	0.123115
4806.89	0.127284
4806.41	0.163124
4805.93	0.206424
4805.45	0.223153
4804.96	0.196475
4804.48	0.167593
4804	0.194944
4803.52	0.269886
4803.04	0.328785
4802.55	0.311613
4802.07	0.25504
4801.59	0.244093
4801.11	0.271253
4800.62	0.245451
4800.14	0.153938
4799.66	0.0920991
4799.18	0.127499
4798.69	0.220447
4798.21	0.251643
4797.73	0.196416
4797.25	0.143484
4796.77	0.141015
4796.28	0.16525
4795.8	0.175189
4795.32	0.172411
4794.84	0.171102
4794.35	0.15734
4793.87	0.133262
4793.39	0.139839
4792.91	0.194058
4792.43	0.226321
4791.94	0.168418
4791.46	0.0993927
4790.98	0.128724
4790.5	0.251271
4790.01	0.324
4789.53	0.238146
4789.05	0.12109
4788.57	0.104141
4788.08	0.167328
4787.6	0.190039
4787.12	0.144814
4786.64	0.11247
4786.16	0.131169
4785.67	0.1519
4785.19	0.1283
4784.71	0.113477
4784.23	0.152301
4783.74	0.196066
4783.26	0.186516
4782.78	0.157964
4782.3	0.186969
4781.82	0.259461
4781.33	0.269002
4780.85	0.188557
4780.37	0.118353
4779.89	0.140171
4779.4	0.203688
4778.92	0.205363
4778.44	0.136582
4777.96	0.0842065
4777.47	0.101953
4776.99	0.146617
4776.51	0.162869
4776.03	0.156019
4775.55	0.15101
4775.06	0.141612
4774.58	0.120064
4774.1	0.111894
4773.62	0.133352
4773.13	0.152505
4772.65	0.149742
4772.17	0.152879
4771.69	0.18781
4771.2	0.216027
4770.72	0.186241
4770.24	0.118163
4769.76	0.0756254
4769.28	0.0845543
4768.79	0.116181
4768.31	0.138465
4767.83	0.141965
4767.35	0.12782
4766.86	0.108768
4766.38	0.116481
4765.9	0.167163
4765.42	0.215348
4764.94	0.20839
4764.45	0.17293
4763.97	0.170689
4763.49	0.210616
4763.01	0.24428
4762.52	0.243942
4762.04	0.236479
4761.56	0.234173
4761.08	0.207908
4760.59	0.154024
4760.11	0.11586
4759.63	0.112748
4759.15	0.117296
4758.67	0.113794
4758.18	0.132689
4757.7	0.188592
4757.22	0.23865
4756.74	0.240099
4756.25	0.198603
4755.77	0.169015
4755.29	0.177711
4754.81	0.202192
4754.33	0.227631
4753.84	0.24607
4753.36	0.234673
4752.88	0.180995
4752.4	0.114382
4751.91	0.0903593
4751.43	0.138158
4750.95	0.225719
4750.47	0.277657
4749.98	0.240242
4749.5	0.167921
4749.02	0.117959
4748.54	0.0859646
4748.06	0.0692134
4747.57	0.0997925
4747.09	0.18176
4746.61	0.25255
4746.13	0.238055
4745.64	0.156496
4745.16	0.108375
4744.68	0.128526
4744.2	0.170883
4743.71	0.183229
4743.23	0.184869
4742.75	0.203471
4742.27	0.198284
4741.79	0.150341
4741.3	0.132703
4740.82	0.204957
4740.34	0.282325
4739.86	0.231591
4739.37	0.12546
4738.89	0.107579
4738.41	0.200785
4737.93	0.300844
4737.45	0.285499
4736.96	0.222775
4736.48	0.210744
4736	0.227763
4735.52	0.230728
4735.03	0.225537
4734.55	0.210913
4734.07	0.158351
4733.59	0.101753
4733.1	0.124222
4732.62	0.230321
4732.14	0.309697
4731.66	0.251219
4731.18	0.160965
4730.69	0.173583
4730.21	0.244584
4729.73	0.256399
4729.25	0.200806
4728.76	0.178351
4728.28	0.203589
4727.8	0.192661
4727.32	0.12183
4726.84	0.0685991
4726.35	0.081745
4725.87	0.122562
4725.39	0.135927
4724.91	0.136527
4724.42	0.156163
4723.94	0.171466
4723.46	0.151715
4722.98	0.128685
4722.49	0.1556
4722.01	0.212102
4721.53	0.219774
4721.05	0.150332
4720.57	0.086406
4720.08	0.0994925
4719.6	0.160771
4719.12	0.191353
4718.64	0.160253
4718.15	0.126146
4717.67	0.142489
4717.19	0.187353
4716.71	0.213188
4716.22	0.209335
4715.74	0.199522
4715.26	0.192634
4714.78	0.169292
4714.3	0.125823
4713.81	0.0902558
4713.33	0.0988325
4712.85	0.149827
4712.37	0.205529
4711.88	0.231389
4711.4	0.214467
4710.92	0.188233
4710.44	0.193785
4709.96	0.218276
4709.47	0.217434
4708.99	0.180112
4708.51	0.15393
4708.03	0.16697
4707.54	0.178824
4707.06	0.142865
4706.58	0.0906418
4706.1	0.0960048
4705.61	0.171632
4705.13	0.249473
4704.65	0.268244
4704.17	0.243237
4703.69	0.214967
4703.2	0.195532
4702.72	0.18138
4702.24	0.173503
4701.76	0.170986
4701.27	0.168866
4700.79	0.167325
4700.31	0.167696
4699.83	0.164027
4699.35	0.156
4698.86	0.155354
4698.38	0.163423
4697.9	0.16082
4697.42	0.14604
4696.93	0.149063
4696.45	0.178994
4695.97	0.191772
4695.49	0.161595
4695	0.124971
4694.52	0.128734
4694.04	0.159487
4693.56	0.170849
4693.08	0.176076
4692.59	0.206841
4692.11	0.221065
4691.63	0.173985
4691.15	0.121765
4690.66	0.133414
4690.18	0.19549
4689.7	0.201998
4689.22	0.146911
4688.73	0.126934
4688.25	0.179101
4687.77	0.216464
4687.29	0.184807
4686.81	0.154965
4686.32	0.181222
4685.84	0.217406
4685.36	0.21026
4684.88	0.19096
4684.39	0.19172
4683.91	0.174991
4683.43	0.12464
4682.95	0.105303
4682.47	0.155108
4681.98	0.221683
4681.5	0.217216
4681.02	0.157111
4680.54	0.121295
4680.05	0.125218
4679.57	0.139232
4679.09	0.157798
4678.61	0.187594
4678.12	0.206884
4677.64	0.204898
4677.16	0.209806
4676.68	0.239762
4676.2	0.240348
4675.71	0.182147
4675.23	0.130015
4674.75	0.153498
4674.27	0.212946
4673.78	0.20513
4673.3	0.118055
4672.82	0.0460376
4672.34	0.0762379
4671.86	0.173891
4671.37	0.247758
4670.89	0.243921
4670.41	0.177083
4669.93	0.113399
4669.44	0.111638
4668.96	0.173898
4668.48	0.223252
4668	0.199064
4667.51	0.157284
4667.03	0.160262
4666.55	0.17216
4666.07	0.139477
4665.59	0.103193
4665.1	0.141197
4664.62	0.228496
4664.14	0.258336
4663.66	0.209896
4663.17	0.171319
4662.69	0.178482
4662.21	0.176799
4661.73	0.146221
4661.24	0.140785
4660.76	0.17544
4660.28	0.182374
4659.8	0.146127
4659.32	0.140227
4658.83	0.20122
4658.35	0.258798
4657.87	0.227541
4657.39	0.16149
4656.9	0.154931
4656.42	0.18131
4655.94	0.168082
4655.46	0.122199
4654.98	0.115655
4654.49	0.159882
4654.01	0.197122
4653.53	0.198016
4653.05	0.193549
4652.56	0.204977
4652.08	0.20848
4651.6	0.183823
4651.12	0.147444
4650.63	0.126187
4650.15	0.131781
4649.67	0.161684
4649.19	0.199522
4648.71	0.218162
4648.22	0.207035
4647.74	0.192589
4647.26	0.196321
4646.78	0.195272
4646.29	0.166305
4645.81	0.14036
4645.33	0.161944
4644.85	0.212819
4644.37	0.211834
4643.88	0.142265
4643.4	0.0947579
4642.92	0.125622
4642.44	0.192853
4641.95	0.203038
4641.47	0.147032
4640.99	0.111686
4640.51	0.141117
4640.02	0.194807
4639.54	0.20825
4639.06	0.179911
4638.58	0.169217
4638.1	0.199521
4637.61	0.23991
4637.13	0.252453
4636.65	0.224452
4636.17	0.189074
4635.68	0.178539
4635.2	0.191583
4634.72	0.205021
4634.24	0.188934
4633.75	0.153535
4633.27	0.133637
4632.79	0.147335
4632.31	0.180527
4631.83	0.198304
4631.34	0.198239
4630.86	0.191446
4630.38	0.170243
4629.9	0.138688
4629.41	0.13568
4628.93	0.178271
4628.45	0.223342
4627.97	0.204319
4627.49	0.145349
4627	0.127741
4626.52	0.159478
4626.04	0.169909
4625.56	0.129928
4625.07	0.118012
4624.59	0.183472
4624.11	0.274732
4623.63	0.280379
4623.14	0.198864
4622.66	0.141309
4622.18	0.141157
4621.7	0.16327
4621.22	0.171353
4620.73	0.166635
4620.25	0.16233
4619.77	0.165779
4619.29	0.19136
4618.8	0.230721
4618.32	0.238257
4617.84	0.189502
4617.36	0.131569
4616.88	0.139602
4616.39	0.196144
4615.91	0.217912
4615.43	0.180742
4614.95	0.151394
4614.46	0.168428
4613.98	0.194494
4613.5	0.195652
4613.02	0.189898
4612.53	0.203174
4612.05	0.216959
4611.57	0.205469
4611.09	0.184832
4610.61	0.188845
4610.12	0.219425
4609.64	0.246706
4609.16	0.236969
4608.68	0.192713
4608.19	0.150526
4607.71	0.143066
4607.23	0.171506
4606.75	0.193296
4606.26	0.169977
4605.78	0.129141
4605.3	0.122989
4604.82	0.154457
4604.34	0.184264
4603.85	0.184967
4603.37	0.17275
4602.89	0.163177
4602.41	0.142028
4601.92	0.111553
4601.44	0.116577
4600.96	0.179123
4600.48	0.25033
4600	0.258112
4599.51	0.199466
4599.03	0.144498
4598.55	0.135264
4598.07	0.16422
4597.58	0.195743
4597.1	0.19591
4596.62	0.168228
4596.14	0.135662
4595.65	0.114566
4595.17	0.117556
4594.69	0.149893
4594.21	0.193622
4593.73	0.211491
4593.24	0.183499
4592.76	0.140515
4592.28	0.12665
4591.8	0.132957
4591.31	0.126353
4590.83	0.112918
4590.35	0.124901
4589.87	0.152597
4589.39	0.153773
4588.9	0.141604
4588.42	0.177903
4587.94	0.255499
4587.46	0.2824
4586.97	0.213514
4586.49	0.131455
4586.01	0.129855
4585.53	0.170852
4585.04	0.172784
4584.56	0.151592
4584.08	0.165002
4583.6	0.198871
4583.12	0.1925
4582.63	0.155576
4582.15	0.155381
4581.67	0.191235
4581.19	0.211925
4580.7	0.194721
4580.22	0.167002
4579.74	0.140788
4579.26	0.104839
4578.77	0.0886095
4578.29	0.132041
4577.81	0.191916
4577.33	0.182141
4576.85	0.10395
4576.36	0.0600233
4575.88	0.0948806
4575.4	0.151599
4574.92	0.172731
4574.43	0.156394
4573.95	0.132801
4573.47	0.113999
4572.99	0.105173
4572.51	0.113666
4572.02	0.12965
4571.54	0.141237
4571.06	0.158306
4570.58	0.178751
4570.09	0.164546
4569.61	0.103539
4569.13	0.0622361
4568.65	0.10649
4568.16	0.173749
4567.68	0.172733
4567.2	0.125025
4566.72	0.122539
4566.24	0.168871
4565.75	0.175839
4565.27	0.138702
4564.79	0.130255
4564.31	0.170449
4563.82	0.190645
4563.34	0.166739
4562.86	0.153167
4562.38	0.176303
4561.9	0.188481
4561.41	0.169766
4560.93	0.172683
4560.45	0.210522
4559.97	0.221279
4559.48	0.189901
4559	0.173244
4558.52	0.19255
4558.04	0.194698
4557.55	0.152359
4557.07	0.124722
4556.59	0.142803
4556.11	0.167997
4555.63	0.160929
4555.14	0.141976
4554.66	0.131393
4554.18	0.110395
4553.7	0.0890815
4553.21	0.115955
4552.73	0.184552
4552.25	0.223244
4551.77	0.196927
4551.28	0.168707
4550.8	0.186181
4550.32	0.19944
4549.84	0.15503
4549.36	0.103431
4548.87	0.110336
4548.39	0.166046
4547.91	0.214177
4547.43	0.216674
4546.94	0.17785
4546.46	0.116822
4545.98	0.0715447
4545.5	0.0871096
4545.02	0.144228
4544.53	0.17509
4544.05	0.163576
4543.57	0.163236
4543.09	0.20225
4542.6	0.22724
4542.12	0.203367
4541.64	0.169569
4541.16	0.154757
4540.67	0.137255
4540.19	0.111274
4539.71	0.113755
4539.23	0.150817
4538.75	0.173767
4538.26	0.159767
4537.78	0.158782
4537.3	0.199022
4536.82	0.228674
4536.33	0.207869
4535.85	0.173038
4535.37	0.160921
4534.89	0.148528
4534.41	0.123172
4533.92	0.134074
4533.44	0.205936
4532.96	0.260532
4532.48	0.229363
4531.99	0.14975
4531.51	0.102812
4531.03	0.112074
4530.55	0.142956
4530.06	0.181619
4529.58	0.221451
4529.1	0.226124
4528.62	0.194829
4528.14	0.178574
4527.65	0.193893
4527.17	0.198943
4526.69	0.161792
4526.21	0.125814
4525.72	0.131698
4525.24	0.158118
4524.76	0.168969
4524.28	0.161942
4523.79	0.149431
4523.31	0.138771
4522.83	0.148325
4522.35	0.193166
4521.87	0.240059
4521.38	0.227939
4520.9	0.182358
4520.42	0.181595
4519.94	0.225644
4519.45	0.230799
4518.97	0.183203
4518.49	0.172613
4518.01	0.228129
4517.53	0.266356
4517.04	0.214915
4516.56	0.146026
4516.08	0.134385
4515.6	0.148901
4515.11	0.141868
4514.63	0.143454
4514.15	0.175964
4513.67	0.185701
4513.18	0.141653
4512.7	0.117324
4512.22	0.163947
4511.74	0.211966
4511.26	0.188495
4510.77	0.150064
4510.29	0.181807
4509.81	0.236053
4509.33	0.21159
4508.84	0.16072
4508.36	0.167292
4507.88	0.206036
4507.4	0.180303
4506.92	0.117283
4506.43	0.115883
4505.95	0.176774
4505.47	0.203543
4504.99	0.168109
4504.5	0.16283
4504.02	0.219373
4503.54	0.258501
4503.06	0.223214
4502.57	0.183422
4502.09	0.21632
4501.61	0.285619
4501.13	0.298491
4500.65	0.22632
4500.16	0.147877
4499.68	0.129428
4499.2	0.166851
4498.72	0.217151
4498.23	0.218088
4497.75	0.17049
4497.27	0.13887
4496.79	0.162223
4496.3	0.214951
4495.82	0.226314
4495.34	0.193037
4494.86	0.161265
4494.38	0.137505
4493.89	0.108742
4493.41	0.0972402
4492.93	0.135348
4492.45	0.18704
4491.96	0.175458
4491.48	0.113867
4491	0.0818829
4490.52	0.11578
4490.04	0.158825
4489.55	0.158885
4489.07	0.140116
4488.59	0.137902
4488.11	0.145229
4487.62	0.155658
4487.14	0.194379
4486.66	0.253733
4486.18	0.254405
4485.69	0.161703
4485.21	0.0688595
4484.73	0.0877046
4484.25	0.198117
4483.77	0.273256
4483.28	0.239997
4482.8	0.170275
4482.32	0.155526
4481.84	0.185431
4481.35	0.207
4480.87	0.192406
4480.39	0.16551
4479.91	0.145444
4479.43	0.126144
4478.94	0.11926
4478.46	0.14452
4477.98	0.176452
4477.5	0.170121
4477.01	0.135331
4476.53	0.131741
4476.05	0.170005
4475.57	0.193872
4475.08	0.170889
4474.6	0.150289
4474.12	0.177717
4473.64	0.209687
4473.16	0.178772
4472.67	0.110491
4472.19	0.0896193
4471.71	0.12991
4471.23	0.161619
4470.74	0.146252
4470.26	0.126139
4469.78	0.137181
4469.3	0.163045
4468.81	0.17167
4468.33	0.169486
4467.85	0.17616
4467.37	0.188197
4466.89	0.195731
4466.4	0.201679
4465.92	0.199359
4465.44	0.172802
4464.96	0.141136
4464.47	0.138875
4463.99	0.159681
4463.51	0.168397
4463.03	0.157265
4462.55	0.16344
4462.06	0.195461
4461.58	0.209146
4461.1	0.179882
4460.62	0.156472
4460.13	0.184913
4459.65	0.245418
4459.17	0.273503
4458.69	0.250471
4458.2	0.206785
4457.72	0.162245
4457.24	0.136694
4456.76	0.154851
4456.28	0.208565
4455.79	0.245035
4455.31	0.219819
4454.83	0.16394
4454.35	0.131636
4453.86	0.136195
4453.38	0.15481
4452.9	0.164398
4452.42	0.161007
4451.94	0.149038
4451.45	0.138534
4450.97	0.140751
4450.49	0.15485
4450.01	0.1722
4449.52	0.190473
4449.04	0.213492
4448.56	0.234209
4448.08	0.232174
4447.59	0.207342
4447.11	0.200159
4446.63	0.225394
4446.15	0.253221
4445.67	0.245228
4445.18	0.204689
4444.7	0.173499
4444.22	0.17476
4443.74	0.201386
4443.25	0.21469
4442.77	0.189718
4442.29	0.152012
4441.81	0.1397
4441.32	0.175224
4440.84	0.222079
4440.36	0.219319
4439.88	0.17848
4439.4	0.14109
4438.91	0.121126
4438.43	0.110969
4437.95	0.114518
4437.47	0.143629
4436.98	0.187247
4436.5	0.21147
4436.02	0.207039
4435.54	0.201379
4435.06	0.1999
4434.57	0.182346
4434.09	0.150557
4433.61	0.139308
4433.13	0.153939
4432.64	0.160281
4432.16	0.147513
