##TITLE=нпво 3.3 1 без апод
##$NOTE=17.03.2022 16:31:1 ^0 x10 v:1 [Без приставки]
##$ITAB=-1,-1
##FIRSTX=5000.29
##DELTAX=-0.482281
##NPOINTS=9333
##XUNITS=1/CM
##YUNITS=ABSORBANCE
5000.29	0.21727
4999.81	0.25901
4999.32	0.245675
4998.84	0.182986
4998.36	0.140958
4997.88	0.157611
4997.39	0.187354
4996.91	0.181265
4996.43	0.148017
4995.95	0.153219
4995.47	0.214497
4994.98	0.266162
4994.5	0.234916
4994.02	0.165483
4993.54	0.148959
4993.05	0.194089
4992.57	0.214896
4992.09	0.176974
4991.61	0.153348
4991.13	0.196
4990.64	0.263701
4990.16	0.27978
4989.68	0.242852
4989.2	0.190567
4988.71	0.130948
4988.23	0.0688447
4987.75	0.0512902
4987.27	0.119821
4986.78	0.207294
4986.3	0.224466
4985.82	0.18177
4985.34	0.162155
4984.86	0.225854
4984.37	0.31908
4983.89	0.366677
4983.41	0.341861
4982.93	0.260389
4982.44	0.19512
4981.96	0.213006
4981.48	0.302557
4981	0.363242
4980.51	0.282083
4980.03	0.140309
4979.55	0.0727927
4979.07	0.101594
4978.59	0.182169
4978.1	0.253553
4977.62	0.277066
4977.14	0.264436
4976.66	0.247376
4976.17	0.254934
4975.69	0.282967
4975.21	0.278666
4974.73	0.223374
4974.25	0.171612
4973.76	0.193966
4973.28	0.266536
4972.8	0.261764
4972.32	0.169091
4971.83	0.11815
4971.35	0.171897
4970.87	0.263321
4970.39	0.268434
4969.9	0.201767
4969.42	0.17964
4968.94	0.200265
4968.46	0.195514
4967.98	0.15412
4967.49	0.15693
4967.01	0.232671
4966.53	0.283147
4966.05	0.256433
4965.56	0.22101
4965.08	0.238594
4964.6	0.275006
4964.12	0.255887
4963.64	0.20832
4963.15	0.198413
4962.67	0.224482
4962.19	0.217827
4961.71	0.174847
4961.22	0.15245
4960.74	0.173153
4960.26	0.210208
4959.78	0.219
4959.29	0.208531
4958.81	0.213741
4958.33	0.239499
4957.85	0.263518
4957.37	0.263997
4956.88	0.239052
4956.4	0.20332
4955.92	0.175661
4955.44	0.169915
4954.95	0.185788
4954.47	0.204324
4953.99	0.20463
4953.51	0.173969
4953.02	0.116928
4952.54	0.0804887
4952.06	0.103668
4951.58	0.170902
4951.1	0.22889
4950.61	0.218077
4950.13	0.179006
4949.65	0.205205
4949.17	0.295839
4948.68	0.321099
4948.2	0.197715
4947.72	0.0686956
4947.24	0.0696411
4946.76	0.188455
4946.27	0.297137
4945.79	0.306083
4945.31	0.256795
4944.83	0.215962
4944.34	0.189846
4943.86	0.171213
4943.38	0.175196
4942.9	0.19275
4942.41	0.179899
4941.93	0.139762
4941.45	0.148401
4940.97	0.248202
4940.49	0.314701
4940	0.254373
4939.52	0.168348
4939.04	0.175951
4938.56	0.261816
4938.07	0.288173
4937.59	0.223177
4937.11	0.152698
4936.63	0.138496
4936.15	0.144918
4935.66	0.136498
4935.18	0.151313
4934.7	0.217576
4934.22	0.257313
4933.73	0.206944
4933.25	0.16579
4932.77	0.221525
4932.29	0.320265
4931.8	0.301005
4931.32	0.17789
4930.84	0.0961415
4930.36	0.125122
4929.88	0.21272
4929.39	0.284808
4928.91	0.333578
4928.43	0.349619
4927.95	0.298122
4927.46	0.211452
4926.98	0.159487
4926.5	0.164918
4926.02	0.207104
4925.53	0.262944
4925.05	0.311326
4924.57	0.29102
4924.09	0.176692
4923.61	0.0940575
4923.12	0.146303
4922.64	0.269635
4922.16	0.281015
4921.68	0.14057
4921.19	0.0516989
4920.71	0.135136
4920.23	0.28815
4919.75	0.326168
4919.27	0.243886
4918.78	0.178679
4918.3	0.181932
4917.82	0.191258
4917.34	0.166123
4916.85	0.138441
4916.37	0.138614
4915.89	0.154658
4915.41	0.159612
4914.92	0.144279
4914.44	0.117267
4913.96	0.111587
4913.48	0.160827
4913	0.232844
4912.51	0.241061
4912.03	0.164947
4911.55	0.104487
4911.07	0.151783
4910.58	0.232107
4910.1	0.234358
4909.62	0.188447
4909.14	0.182827
4908.66	0.218045
4908.17	0.204152
4907.69	0.131031
4907.21	0.0892702
4906.73	0.135756
4906.24	0.216533
4905.76	0.269859
4905.28	0.28927
4904.8	0.272929
4904.31	0.21793
4903.83	0.157337
4903.35	0.139797
4902.87	0.177295
4902.39	0.213993
4901.9	0.207932
4901.42	0.17658
4900.94	0.147115
4900.46	0.126673
4899.97	0.123199
4899.49	0.157821
4899.01	0.229759
4898.53	0.270292
4898.04	0.216046
4897.56	0.138972
4897.08	0.122771
4896.6	0.16367
4896.12	0.193969
4895.63	0.166099
4895.15	0.110158
4894.67	0.0912138
4894.19	0.14131
4893.7	0.222772
4893.22	0.266481
4892.74	0.256028
4892.26	0.239568
4891.78	0.249378
4891.29	0.261516
4890.81	0.253547
4890.33	0.242418
4889.85	0.257221
4889.36	0.280732
4888.88	0.268138
4888.4	0.234214
4887.92	0.226491
4887.43	0.251823
4886.95	0.27221
4886.47	0.260505
4885.99	0.225777
4885.51	0.195011
4885.02	0.183365
4884.54	0.19147
4884.06	0.208172
4883.58	0.209032
4883.09	0.189605
4882.61	0.180908
4882.13	0.20993
4881.65	0.245669
4881.17	0.231151
4880.68	0.170546
4880.2	0.123819
4879.72	0.142819
4879.24	0.204743
4878.75	0.259605
4878.27	0.272157
4877.79	0.23123
4877.31	0.183187
4876.82	0.174095
4876.34	0.200091
4875.86	0.220055
4875.38	0.213291
4874.9	0.222095
4874.41	0.282423
4873.93	0.356502
4873.45	0.352876
4872.97	0.271826
4872.48	0.209556
4872	0.214349
4871.52	0.248662
4871.04	0.260035
4870.55	0.2397
4870.07	0.214369
4869.59	0.210959
4869.11	0.23051
4868.63	0.247823
4868.14	0.237338
4867.66	0.210392
4867.18	0.191604
4866.7	0.177974
4866.21	0.152698
4865.73	0.132758
4865.25	0.150276
4864.77	0.188891
4864.29	0.196889
4863.8	0.183236
4863.32	0.233707
4862.84	0.371001
4862.36	0.453806
4861.87	0.361352
4861.39	0.244632
4860.91	0.235177
4860.43	0.296468
4859.94	0.29462
4859.46	0.219675
4858.98	0.192548
4858.5	0.228928
4858.02	0.233962
4857.53	0.170638
4857.05	0.13557
4856.57	0.196091
4856.09	0.280517
4855.6	0.302048
4855.12	0.260136
4854.64	0.204017
4854.16	0.165418
4853.68	0.171836
4853.19	0.249339
4852.71	0.33969
4852.23	0.305513
4851.75	0.170137
4851.26	0.0871607
4850.78	0.129374
4850.3	0.217351
4849.82	0.243494
4849.33	0.219338
4848.85	0.201447
4848.37	0.182548
4847.89	0.149448
4847.41	0.155204
4846.92	0.231474
4846.44	0.30663
4845.96	0.28209
4845.48	0.211206
4844.99	0.205674
4844.51	0.258128
4844.03	0.268609
4843.55	0.215357
4843.06	0.187274
4842.58	0.203912
4842.1	0.204944
4841.62	0.17819
4841.14	0.190122
4840.65	0.257239
4840.17	0.291124
4839.69	0.224713
4839.21	0.165999
4838.72	0.194678
4838.24	0.255642
4837.76	0.245189
4837.28	0.172538
4836.8	0.124514
4836.31	0.127925
4835.83	0.160268
4835.35	0.185726
4834.87	0.186546
4834.38	0.157484
4833.9	0.117499
4833.42	0.128727
4832.94	0.202636
4832.45	0.253466
4831.97	0.222406
4831.49	0.176824
4831.01	0.214673
4830.53	0.316673
4830.04	0.330738
4829.56	0.22566
4829.08	0.157726
4828.6	0.185742
4828.11	0.242026
4827.63	0.246263
4827.15	0.242117
4826.67	0.308259
4826.19	0.398732
4825.7	0.369169
4825.22	0.260659
4824.74	0.193202
4824.26	0.190087
4823.77	0.215443
4823.29	0.246171
4822.81	0.295033
4822.33	0.33093
4821.84	0.284066
4821.36	0.186413
4820.88	0.131108
4820.4	0.153182
4819.92	0.212064
4819.43	0.25573
4818.95	0.285403
4818.47	0.297793
4817.99	0.257164
4817.5	0.187487
4817.02	0.156382
4816.54	0.169545
4816.06	0.162905
4815.57	0.108053
4815.09	0.0822598
4814.61	0.143517
4814.13	0.232013
4813.65	0.247198
4813.16	0.204734
4812.68	0.196279
4812.2	0.228393
4811.72	0.220358
4811.23	0.158198
4810.75	0.120482
4810.27	0.152245
4809.79	0.203487
4809.31	0.205831
4808.82	0.163335
4808.34	0.129521
4807.86	0.136112
4807.38	0.1804
4806.89	0.238033
4806.41	0.25928
4805.93	0.217531
4805.45	0.147725
4804.96	0.106322
4804.48	0.142762
4804	0.252911
4803.52	0.360137
4803.04	0.374988
4802.55	0.286327
4802.07	0.184248
4801.59	0.152378
4801.11	0.189373
4800.62	0.21762
4800.14	0.1754
4799.66	0.108321
4799.18	0.0953727
4798.69	0.14333
4798.21	0.199905
4797.73	0.226838
4797.25	0.220999
4796.77	0.187167
4796.28	0.142784
4795.8	0.130611
4795.32	0.177855
4794.84	0.235304
4794.35	0.216451
4793.87	0.156179
4793.39	0.160232
4792.91	0.260651
4792.43	0.340152
4791.94	0.255571
4791.46	0.138172
4790.98	0.138571
4790.5	0.247169
4790.01	0.322888
4789.53	0.257455
4789.05	0.160074
4788.57	0.158009
4788.08	0.233903
4787.6	0.264345
4787.12	0.216905
4786.64	0.171282
4786.16	0.162961
4785.67	0.150435
4785.19	0.113065
4784.71	0.111427
4784.23	0.179817
4783.74	0.25013
4783.26	0.236101
4782.78	0.180736
4782.3	0.193855
4781.82	0.282302
4781.33	0.327268
4780.85	0.257545
4780.37	0.172538
4779.89	0.174755
4779.4	0.22249
4778.92	0.221329
4778.44	0.170128
4777.96	0.144911
4777.47	0.175063
4776.99	0.205073
4776.51	0.211202
4776.03	0.23101
4775.55	0.260506
4775.06	0.234614
4774.58	0.151744
4774.1	0.107573
4773.62	0.146518
4773.13	0.196563
4772.65	0.190393
4772.17	0.17288
4771.69	0.216287
4771.2	0.285849
4770.72	0.278127
4770.24	0.194448
4769.76	0.136534
4769.28	0.141933
4768.79	0.161505
4768.31	0.161392
4767.83	0.170872
4767.35	0.206226
4766.86	0.226737
4766.38	0.193576
4765.9	0.149094
4765.42	0.146642
4764.94	0.186361
4764.45	0.246367
4763.97	0.292231
4763.49	0.292038
4763.01	0.260114
4762.52	0.236629
4762.04	0.238751
4761.56	0.240866
4761.08	0.214837
4760.59	0.182435
4760.11	0.180712
4759.63	0.199631
4759.15	0.202448
4758.67	0.196908
4758.18	0.219041
4757.7	0.240086
4757.22	0.202687
4756.74	0.129377
4756.25	0.0900805
4755.77	0.127461
4755.29	0.186927
4754.81	0.200972
4754.33	0.193214
4753.84	0.204032
4753.36	0.226787
4752.88	0.242327
4752.4	0.256342
4751.91	0.254234
4751.43	0.202904
4750.95	0.142695
4750.47	0.139648
4749.98	0.20937
4749.5	0.266932
4749.02	0.225681
4748.54	0.155674
4748.06	0.146935
4747.57	0.209913
4747.09	0.264498
4746.61	0.280568
4746.13	0.288322
4745.64	0.276364
4745.16	0.222143
4744.68	0.162213
4744.2	0.127768
4743.71	0.114376
4743.23	0.122468
4742.75	0.17007
4742.27	0.251159
4741.79	0.294804
4741.3	0.229159
4740.82	0.161851
4740.34	0.180496
4739.86	0.244658
4739.37	0.266958
4738.89	0.24007
4738.41	0.240361
4737.93	0.26029
4737.45	0.231522
4736.96	0.180662
4736.48	0.195711
4736	0.273766
4735.52	0.319523
4735.03	0.289286
4734.55	0.259672
4734.07	0.261003
4733.59	0.248821
4733.1	0.223205
4732.62	0.236896
4732.14	0.2755
4731.66	0.265665
4731.18	0.208931
4730.69	0.209152
4730.21	0.265394
4729.73	0.270362
4729.25	0.193591
4728.76	0.155782
4728.28	0.211402
4727.8	0.271364
4727.32	0.229275
4726.84	0.147167
4726.35	0.126322
4725.87	0.145932
4725.39	0.142056
4724.91	0.131829
4724.42	0.160498
4723.94	0.203984
4723.46	0.212582
4722.98	0.203103
4722.49	0.228377
4722.01	0.262826
4721.53	0.242511
4721.05	0.180276
4720.57	0.148818
4720.08	0.172662
4719.6	0.211461
4719.12	0.237081
4718.64	0.24903
4718.15	0.240235
4717.67	0.219911
4717.19	0.219042
4716.71	0.233097
4716.22	0.2201
4715.74	0.178504
4715.26	0.176968
4714.78	0.226883
4714.3	0.241636
4713.81	0.170765
4713.33	0.133258
4712.85	0.219152
4712.37	0.35526
4711.88	0.344156
4711.4	0.205468
4710.92	0.154765
4710.44	0.227548
4709.96	0.303068
4709.47	0.282147
4708.99	0.234259
4708.51	0.221805
4708.03	0.199858
4707.54	0.149262
4707.06	0.130557
4706.58	0.178006
4706.1	0.225267
4705.61	0.199384
4705.13	0.187977
4704.65	0.255515
4704.17	0.340291
4703.69	0.296193
4703.2	0.176487
4702.72	0.134038
4702.24	0.177651
4701.76	0.206479
4701.27	0.170262
4700.79	0.139
4700.31	0.161872
4699.83	0.194666
4699.35	0.182633
4698.86	0.156147
4698.38	0.15975
4697.9	0.179613
4697.42	0.184922
4696.93	0.189544
4696.45	0.216388
4695.97	0.241154
4695.49	0.230312
4695	0.188972
4694.52	0.148436
4694.04	0.129163
4693.56	0.128016
4693.08	0.148384
4692.59	0.18995
4692.11	0.211463
4691.63	0.193612
4691.15	0.17653
4690.66	0.192568
4690.18	0.214284
4689.7	0.19253
4689.22	0.15213
4688.73	0.14918
4688.25	0.197143
4687.77	0.234596
4687.29	0.223158
4686.81	0.194835
4686.32	0.18698
4685.84	0.196276
4685.36	0.203518
4684.88	0.205531
4684.39	0.20284
4683.91	0.191643
4683.43	0.179051
4682.95	0.180917
4682.47	0.202564
4681.98	0.236424
4681.5	0.273733
4681.02	0.288655
4680.54	0.238426
4680.05	0.146339
4679.57	0.0897265
4679.09	0.121397
4678.61	0.214087
4678.12	0.276625
4677.64	0.281004
4677.16	0.275378
4676.68	0.284492
4676.2	0.26735
4675.71	0.215836
4675.23	0.183753
4674.75	0.21334
4674.27	0.256305
4673.78	0.23604
4673.3	0.152746
4672.82	0.0771703
4672.34	0.0863037
4671.86	0.167251
4671.37	0.257394
4670.89	0.299658
4670.41	0.271565
4669.93	0.223715
4669.44	0.215751
4668.96	0.24103
4668.48	0.238369
4668	0.196032
4667.51	0.169462
4667.03	0.189064
4666.55	0.214242
4666.07	0.20512
4665.59	0.185674
4665.1	0.195246
4664.62	0.214261
4664.14	0.210498
4663.66	0.199325
4663.17	0.206291
4662.69	0.209836
4662.21	0.180215
4661.73	0.145142
4661.24	0.152689
4660.76	0.196325
4660.28	0.223481
4659.8	0.228791
4659.32	0.238305
4658.83	0.234117
4658.35	0.183653
4657.87	0.122086
4657.39	0.124149
4656.9	0.209858
4656.42	0.285604
4655.94	0.261407
4655.46	0.192388
4654.98	0.182261
4654.49	0.238131
4654.01	0.28376
4653.53	0.26956
4653.05	0.234514
4652.56	0.226518
4652.08	0.234332
4651.6	0.224737
4651.12	0.199657
4650.63	0.191997
4650.15	0.210294
4649.67	0.220196
4649.19	0.200478
4648.71	0.183264
4648.22	0.205588
4647.74	0.259026
4647.26	0.280744
4646.78	0.243425
4646.29	0.195345
4645.81	0.178461
4645.33	0.197278
4644.85	0.228872
4644.37	0.245694
4643.88	0.232285
4643.4	0.198411
4642.92	0.173049
4642.44	0.166062
4641.95	0.163646
4641.47	0.164499
4640.99	0.192541
4640.51	0.247558
4640.02	0.269318
4639.54	0.227374
4639.06	0.19759
4638.58	0.258514
4638.1	0.361156
4637.61	0.353378
4637.13	0.242333
4636.65	0.182383
4636.17	0.232065
4635.68	0.302816
4635.2	0.287068
4634.72	0.234883
4634.24	0.241257
4633.75	0.280342
4633.27	0.271043
4632.79	0.230633
4632.31	0.235269
4631.83	0.268308
4631.34	0.251515
4630.86	0.190862
4630.38	0.158759
4629.9	0.192621
4629.41	0.250043
4628.93	0.269633
4628.45	0.254106
4627.97	0.231694
4627.49	0.215218
4627	0.211148
4626.52	0.214309
4626.04	0.203504
4625.56	0.177922
4625.07	0.173822
4624.59	0.208138
4624.11	0.249503
4623.63	0.260947
4623.14	0.248497
4622.66	0.234686
4622.18	0.206925
4621.7	0.158529
4621.22	0.131662
4620.73	0.152581
4620.25	0.184837
4619.77	0.194074
4619.29	0.210322
4618.8	0.256255
4618.32	0.270613
4617.84	0.204068
4617.36	0.131985
4616.88	0.16112
4616.39	0.252374
4615.91	0.257246
4615.43	0.167894
4614.95	0.134645
4614.46	0.207783
4613.98	0.294958
4613.5	0.280618
4613.02	0.212731
4612.53	0.19648
4612.05	0.223631
4611.57	0.234989
4611.09	0.213682
4610.61	0.189656
4610.12	0.173063
4609.64	0.159663
4609.16	0.162262
4608.68	0.189173
4608.19	0.216916
4607.71	0.219893
4607.23	0.212926
4606.75	0.217069
4606.26	0.222381
4605.78	0.216257
4605.3	0.207165
4604.82	0.196377
4604.34	0.170852
4603.85	0.143217
4603.37	0.148859
4602.89	0.184448
4602.41	0.19925
4601.92	0.169284
4601.44	0.149896
4600.96	0.179673
4600.48	0.215789
4600	0.218483
4599.51	0.219126
4599.03	0.261558
4598.55	0.316882
4598.07	0.302863
4597.58	0.232905
4597.1	0.195604
4596.62	0.202337
4596.14	0.194554
4595.65	0.149193
4595.17	0.125483
4594.69	0.164355
4594.21	0.224465
4593.73	0.229948
4593.24	0.17733
4592.76	0.132278
4592.28	0.132049
4591.8	0.151769
4591.31	0.164894
4590.83	0.181009
4590.35	0.207544
4589.87	0.217758
4589.39	0.201769
4588.9	0.198045
4588.42	0.236855
4587.94	0.274545
4587.46	0.253368
4586.97	0.185443
4586.49	0.131809
4586.01	0.14034
4585.53	0.183438
4585.04	0.220836
4584.56	0.24824
4584.08	0.256971
4583.6	0.233379
4583.12	0.202162
4582.63	0.207077
4582.15	0.241583
4581.67	0.246655
4581.19	0.215877
4580.7	0.20276
4580.22	0.226321
4579.74	0.219137
4579.26	0.152781
4578.77	0.114907
4578.29	0.167596
4577.81	0.234155
4577.33	0.198936
4576.85	0.100512
4576.36	0.0644751
4575.88	0.108667
4575.4	0.151604
4574.92	0.159284
4574.43	0.171005
4573.95	0.193762
4573.47	0.182301
4572.99	0.147872
4572.51	0.149026
4572.02	0.183515
4571.54	0.191961
4571.06	0.176709
4570.58	0.200596
4570.09	0.255901
4569.61	0.241515
4569.13	0.133548
4568.65	0.0846868
4568.16	0.13113
4567.68	0.180315
4567.2	0.161847
4566.72	0.139097
4566.24	0.1974
4565.75	0.279606
4565.27	0.283529
4564.79	0.223381
4564.31	0.197846
4563.82	0.202402
4563.34	0.180947
4562.86	0.147169
4562.38	0.158536
4561.9	0.203636
4561.41	0.210055
4560.93	0.181113
4560.45	0.194886
4559.97	0.253325
4559.48	0.274134
4559	0.222765
4558.52	0.177056
4558.04	0.193163
4557.55	0.237511
4557.07	0.241477
4556.59	0.212002
4556.11	0.199709
4555.63	0.206984
4555.14	0.194463
4554.66	0.150001
4554.18	0.114343
4553.7	0.129697
4553.21	0.194265
4552.73	0.249905
4552.25	0.249953
4551.77	0.211183
4551.28	0.17833
4550.8	0.167686
4550.32	0.159783
4549.84	0.148995
4549.36	0.158654
4548.87	0.195228
4548.39	0.224974
4547.91	0.226639
4547.43	0.219834
4546.94	0.212072
4546.46	0.180188
4545.98	0.131365
4545.5	0.125319
4545.02	0.1738
4544.53	0.210267
4544.05	0.185003
4543.57	0.146689
4543.09	0.165608
4542.6	0.215079
4542.12	0.220979
4541.64	0.186676
4541.16	0.179362
4540.67	0.209137
4540.19	0.219818
4539.71	0.194007
4539.23	0.183475
4538.75	0.202437
4538.26	0.209841
4537.78	0.185346
4537.3	0.17522
4536.82	0.20255
4536.33	0.236154
4535.85	0.236061
4535.37	0.211731
4534.89	0.198878
4534.41	0.205647
4533.92	0.228712
4533.44	0.254473
4532.96	0.251713
4532.48	0.204638
4531.99	0.143106
4531.51	0.137508
4531.03	0.207169
4530.55	0.272249
4530.06	0.264661
4529.58	0.222399
4529.1	0.219107
4528.62	0.253504
4528.14	0.267127
4527.65	0.237996
4527.17	0.206714
4526.69	0.202328
4526.21	0.211584
4525.72	0.215903
4525.24	0.224632
4524.76	0.248442
4524.28	0.269227
4523.79	0.248929
4523.31	0.193068
4522.83	0.156028
4522.35	0.163147
4521.87	0.197319
4521.38	0.222335
4520.9	0.217181
4520.42	0.196166
4519.94	0.183977
4519.45	0.191942
4518.97	0.222804
4518.49	0.266997
4518.01	0.287074
4517.53	0.251527
4517.04	0.181606
4516.56	0.124301
4516.08	0.109429
4515.6	0.132432
4515.11	0.178673
4514.63	0.235721
4514.15	0.261291
4513.67	0.217418
4513.18	0.149939
4512.7	0.140485
4512.22	0.210487
4511.74	0.27734
4511.26	0.258463
4510.77	0.190346
4510.29	0.156998
4509.81	0.167128
4509.33	0.17742
4508.84	0.189455
4508.36	0.224289
4507.88	0.248439
4507.4	0.217259
4506.92	0.177245
4506.43	0.187882
4505.95	0.221204
4505.47	0.206874
4504.99	0.173164
4504.5	0.202267
4504.02	0.278981
4503.54	0.284932
4503.06	0.203801
4502.57	0.164028
4502.09	0.234552
4501.61	0.328301
4501.13	0.305682
4500.65	0.200692
4500.16	0.142705
4499.68	0.157539
4499.2	0.190527
4498.72	0.203663
4498.23	0.201426
4497.75	0.191746
4497.27	0.177045
4496.79	0.169704
4496.3	0.174746
4495.82	0.176145
4495.34	0.174583
4494.86	0.193336
4494.38	0.223704
4493.89	0.213318
4493.41	0.163512
4492.93	0.151079
4492.45	0.202625
4491.96	0.247699
4491.48	0.22375
4491	0.181489
4490.52	0.194908
4490.04	0.226773
4489.55	0.204754
4489.07	0.156636
4488.59	0.157281
4488.11	0.206981
4487.62	0.237121
4487.14	0.226398
4486.66	0.213973
4486.18	0.201308
4485.69	0.161079
4485.21	0.117967
4484.73	0.136928
4484.25	0.191263
4483.77	0.200767
4483.28	0.175577
4482.8	0.190909
4482.32	0.259648
4481.84	0.288831
4481.35	0.232139
4480.87	0.174937
4480.39	0.182648
4479.91	0.201559
4479.43	0.173637
4478.94	0.139387
4478.46	0.160428
4477.98	0.20533
4477.5	0.201858
4477.01	0.165281
4476.53	0.172205
4476.05	0.22511
4475.57	0.25144
4475.08	0.221554
4474.6	0.197558
4474.12	0.227022
4473.64	0.26883
4473.16	0.252694
4472.67	0.18237
4472.19	0.139275
4471.71	0.168011
4471.23	0.232506
4470.74	0.261692
4470.26	0.231384
4469.78	0.188606
4469.3	0.176025
4468.81	0.187227
4468.33	0.194158
4467.85	0.19378
4467.37	0.200435
4466.89	0.203586
4466.4	0.18276
4465.92	0.158302
4465.44	0.17463
4464.96	0.234781
4464.47	0.268809
4463.99	0.234048
4463.51	0.183355
4463.03	0.174774
4462.55	0.207718
4462.06	0.24494
4461.58	0.264704
4461.1	0.256387
4460.62	0.20856
4460.13	0.151941
4459.65	0.147594
4459.17	0.216027
4458.69	0.298817
4458.2	0.294865
4457.72	0.211483
4457.24	0.157765
4456.76	0.175125
4456.28	0.209142
4455.79	0.20912
4455.31	0.200855
4454.83	0.2194
4454.35	0.245048
4453.86	0.237472
4453.38	0.215757
4452.9	0.218137
4452.42	0.234789
4451.94	0.227626
4451.45	0.194206
4450.97	0.175928
4450.49	0.18928
4450.01	0.215745
4449.52	0.227755
4449.04	0.217309
4448.56	0.193513
4448.08	0.166718
4447.59	0.155274
4447.11	0.173449
4446.63	0.212837
4446.15	0.262224
4445.67	0.305537
4445.18	0.306013
4444.7	0.252257
4444.22	0.185925
4443.74	0.158105
4443.25	0.186748
4442.77	0.231873
4442.29	0.248419
4441.81	0.231667
4441.32	0.205399
4440.84	0.19279
4440.36	0.195656
4439.88	0.204743
4439.4	0.202423
4438.91	0.175763
4438.43	0.153271
4437.95	0.174711
4437.47	0.229988
4436.98	0.245519
4436.5	0.187485
4436.02	0.14173
4435.54	0.168743
4435.06	0.221009
4434.57	0.202712
4434.09	0.126388
4433.61	0.110942
4433.13	0.187094
4432.64	0.261159
4432.16	0.25438
4431.68	0.2213
